EXPLAIN
TAG	CHRONOA
TITLE	LABEL	CHRONOA	Test Identifier
DATE	LABEL	21.8.2024	Date
TIME	LABEL	17:08:31	Time
NOTES	NOTES	1	Notes...
	
PSTAT	PSTAT	IFC1010-36105	Potentiostat
VPRESTEP	POTEN	5.00000E-001	F	Pre-step Voltage (V)
TPRESTEP	QUANT	1.00000E+001	Pre-step Delay Time (s)
VSTEP1	POTEN	1.00000E+000	F	Step 1 Voltage (V)
TSTEP1	QUANT	3.00000E+001	Step 1 Time (s)
VSTEP2	POTEN	1.60000E+000	F	Step 2 Voltage (V)
TSTEP2	QUANT	7.20000E+003	Step 2 Time (s)
SAMPLETIME	QUANT	4.99999E+000	Sample Period (s)
DECIMATE	TOGGLE	F	Decimate
ILIMIT	QUANT	6.00000E+001	Limit I (mA/cm^2)
IMODE	SELECTOR	0	I/E Range Mode
IRANGE	QUANT	3.00000E+001	Max Current (mA)
EQDELAY	QUANT	0.00000E+000	Equil. Time (s)
SAMPLINGMODE	SELECTOR	1	Sampling Mode
AREA	QUANT	1.00000E+000	Sample Area (cm^2)
IRCOMP	SELECTOR	0	IRComp
PFCOR	QUANT	5.00000E+001	PF Corr. (ohm)
ELECTRODETYPE	SELECTOR	0	Electrode Type
STRIPPING	TOGGLE	F	Used for Stripping
SEQUENCER	TOGGLE	TRUE	Run as Sequence
PSTATMODEL	IQUANT	64	Pstat Model
PSTATSECTION	LABEL	IFC1010-36105	Pstat Section
PSTATSERIALNO	LABEL	36105	Pstat Serial Number
CTRLMODE	IQUANT	1	Control Mode
ELECTROMETER	IQUANT	0	RE=0 or CS=1
IESTAB	IQUANT	0	I/E Stability
CASPEED	IQUANT	4	Control Amp Speed
CONVENTION	IQUANT	1	Current Convention
ICHRANGE	IQUANT	2	Ich Range
ICHRANGEMODE	TOGGLE	T	Ich Auto Range
ICHOFFSETENABLE	TOGGLE	F	Ich Offset Enable
ICHOFFSET	QUANT	0	Ich Offset (V)
ICHFILTER	IQUANT	4	Ich Filter
VCHRANGE	IQUANT	2	Vch Range
VCHRANGEMODE	TOGGLE	F	Vch Auto Range
VCHOFFSETENABLE	TOGGLE	F	Vch Offset Enable
VCHOFFSET	QUANT	0	Vch Offset (V)
VCHFILTER	IQUANT	4	Vch Filter
IERANGELOWERLIMIT	IQUANT	4	I/E Range Lower Limit
IERANGEMODE	TOGGLE	T	I/E AutoRange
IERANGE	IQUANT	11	I/E Range
ACHSELECT	IQUANT	0	Ach Select
ACHRANGE	IQUANT	2	Ach Range
ACHOFFSETENABLE	TOGGLE	F	Ach Offset Enable
ACHOFFSET	QUANT	0	Ach Offset (V)
ACHFILTER	IQUANT	1	Ach Filter
SENSECABLEID	IQUANT	13	Sense Cable ID
PWRCABLEID	IQUANT	13	Power Cable ID
DCCALDATE	LABEL	10/17/2023	DC Calibration Date
ACCALDATE	LABEL	6/2/2023	AC Calibration Date
FRAMEWORKVERSION	LABEL	7.10.3	Framework Version
INSTRUMENTVERSION	LABEL	4.91	Instrument Version
COMMVERSION	LABEL	3.10	Communications Version
CPUPLDVERSION	LABEL	2.22	CPU PLD Version
CTRLPLDVERSION	LABEL	0.00	CTRL PLD Version
PSTATPLDVERSION	LABEL	0.00	PSTAT PLD Version
CURVE	TABLE	1448
	Pt	T	Vf	Im	Vu	Sig	Ach	IERange	Over	Temp
	#	s	V vs. Ref.	A	V	V	V	#	bits	deg C
	0	-5	5.00418E-001	1.42428E-005	0.00000E+000	5.00076E-001	0.00000E+000	11	...........	1489.83
	1	0	5.00394E-001	1.44169E-006	0.00000E+000	5.00076E-001	0.00000E+000	10	...........	1489.79
	2	5	1.00050E+000	4.46512E-006	0.00000E+000	1.00007E+000	0.00000E+000	9	...........	1489.79
	3	10	1.00050E+000	4.14923E-006	0.00000E+000	1.00007E+000	0.00000E+000	8	...........	1489.88
	4	15	1.00050E+000	4.15336E-006	0.00000E+000	1.00007E+000	0.00000E+000	7	...........	1489.88
	5	20	1.00050E+000	4.20952E-006	0.00000E+000	1.00007E+000	0.00000E+000	7	...........	1489.83
	6	25	1.00050E+000	4.31561E-006	0.00000E+000	1.00007E+000	0.00000E+000	7	...........	1489.84
	7	30	1.00050E+000	4.48339E-006	0.00000E+000	1.00007E+000	0.00000E+000	7	...........	1489.79
	8	35	1.60062E+000	1.09390E-005	0.00000E+000	1.60008E+000	0.00000E+000	7	....ih..i..	1489.74
	9	40	1.60066E+000	7.14409E-005	0.00000E+000	1.60008E+000	0.00000E+000	8	...........	1489.88
	10	45	1.60066E+000	6.69829E-005	0.00000E+000	1.60008E+000	0.00000E+000	8	...........	1489.88
	11	50	1.60067E+000	6.49485E-005	0.00000E+000	1.60008E+000	0.00000E+000	8	...........	1489.88
	12	55	1.60066E+000	6.37868E-005	0.00000E+000	1.60008E+000	0.00000E+000	8	...........	1489.88
	13	60	1.60066E+000	6.28599E-005	0.00000E+000	1.60008E+000	0.00000E+000	8	...........	1489.88
	14	65	1.60066E+000	6.22879E-005	0.00000E+000	1.60008E+000	0.00000E+000	8	...........	1489.88
	15	70	1.60066E+000	6.17030E-005	0.00000E+000	1.60008E+000	0.00000E+000	8	...........	1489.88
	16	75	1.60067E+000	6.14797E-005	0.00000E+000	1.60008E+000	0.00000E+000	8	...........	1489.88
	17	80	1.60066E+000	6.14652E-005	0.00000E+000	1.60008E+000	0.00000E+000	8	...........	1489.88
	18	85	1.60067E+000	6.10651E-005	0.00000E+000	1.60008E+000	0.00000E+000	8	...........	1489.88
	19	90	1.60066E+000	6.09552E-005	0.00000E+000	1.60008E+000	0.00000E+000	8	...........	1489.79
	20	95	1.60066E+000	6.08670E-005	0.00000E+000	1.60008E+000	0.00000E+000	8	...........	1489.88
	21	100	1.60067E+000	6.08072E-005	0.00000E+000	1.60008E+000	0.00000E+000	8	...........	1489.88
	22	105	1.60067E+000	6.05230E-005	0.00000E+000	1.60008E+000	0.00000E+000	8	...........	1489.88
	23	110	1.60067E+000	6.05995E-005	0.00000E+000	1.60008E+000	0.00000E+000	8	...........	1489.88
	24	115	1.60067E+000	6.05440E-005	0.00000E+000	1.60008E+000	0.00000E+000	8	...........	1489.88
	25	120	1.60067E+000	6.02275E-005	0.00000E+000	1.60008E+000	0.00000E+000	8	...........	1489.88
	26	125	1.60067E+000	6.02493E-005	0.00000E+000	1.60008E+000	0.00000E+000	8	...........	1489.88
	27	130	1.60066E+000	6.01188E-005	0.00000E+000	1.60008E+000	0.00000E+000	8	...........	1489.88
	28	135	1.60066E+000	6.74293E-005	0.00000E+000	1.60008E+000	0.00000E+000	8	...........	1489.88
	29	140	1.60066E+000	6.45868E-005	0.00000E+000	1.60008E+000	0.00000E+000	8	...........	1489.88
	30	145	1.60067E+000	6.21366E-005	0.00000E+000	1.60008E+000	0.00000E+000	8	...........	1489.88
	31	150	1.60067E+000	5.87341E-005	0.00000E+000	1.60008E+000	0.00000E+000	8	...........	1489.88
	32	155	1.60066E+000	5.96179E-005	0.00000E+000	1.60008E+000	0.00000E+000	8	...........	1489.88
	33	160	1.60066E+000	5.89500E-005	0.00000E+000	1.60008E+000	0.00000E+000	8	...........	1489.88
	34	165	1.60066E+000	5.72668E-005	0.00000E+000	1.60008E+000	0.00000E+000	8	...........	1489.88
	35	170	1.60066E+000	5.86757E-005	0.00000E+000	1.60008E+000	0.00000E+000	8	...........	1489.88
	36	175	1.60066E+000	5.89628E-005	0.00000E+000	1.60008E+000	0.00000E+000	8	...........	1489.88
	37	180	1.60066E+000	5.91832E-005	0.00000E+000	1.60008E+000	0.00000E+000	8	...........	1489.88
	38	185	1.60067E+000	5.91262E-005	0.00000E+000	1.60008E+000	0.00000E+000	8	...........	1489.88
	39	190	1.60067E+000	5.91858E-005	0.00000E+000	1.60008E+000	0.00000E+000	8	...........	1489.88
	40	195	1.60066E+000	5.91665E-005	0.00000E+000	1.60008E+000	0.00000E+000	8	...........	1489.88
	41	200	1.60066E+000	5.90818E-005	0.00000E+000	1.60008E+000	0.00000E+000	8	...........	1489.88
	42	205	1.60066E+000	5.90795E-005	0.00000E+000	1.60008E+000	0.00000E+000	8	...........	1489.88
	43	210	1.60066E+000	5.90832E-005	0.00000E+000	1.60008E+000	0.00000E+000	8	...........	1489.88
	44	215	1.60066E+000	5.89956E-005	0.00000E+000	1.60008E+000	0.00000E+000	8	...........	1489.88
	45	220	1.60066E+000	5.89811E-005	0.00000E+000	1.60008E+000	0.00000E+000	8	...........	1489.88
	46	225	1.60066E+000	5.88789E-005	0.00000E+000	1.60008E+000	0.00000E+000	8	...........	1489.88
	47	230	1.60065E+000	5.88723E-005	0.00000E+000	1.60008E+000	0.00000E+000	8	...........	1489.88
	48	235	1.60066E+000	5.89340E-005	0.00000E+000	1.60008E+000	0.00000E+000	8	...........	1489.88
	49	240	1.60067E+000	5.88005E-005	0.00000E+000	1.60008E+000	0.00000E+000	8	...........	1489.88
	50	245	1.60066E+000	5.81938E-005	0.00000E+000	1.60008E+000	0.00000E+000	8	...........	1489.88
	51	250	1.60067E+000	5.84389E-005	0.00000E+000	1.60008E+000	0.00000E+000	8	...........	1489.88
	52	255	1.60066E+000	5.85861E-005	0.00000E+000	1.60008E+000	0.00000E+000	8	...........	1489.88
	53	260	1.60066E+000	5.87197E-005	0.00000E+000	1.60008E+000	0.00000E+000	8	...........	1489.88
	54	265	1.60066E+000	5.86165E-005	0.00000E+000	1.60008E+000	0.00000E+000	8	...........	1489.88
	55	270	1.60066E+000	5.87244E-005	0.00000E+000	1.60008E+000	0.00000E+000	8	...........	1489.88
	56	275	1.60066E+000	5.86438E-005	0.00000E+000	1.60008E+000	0.00000E+000	8	...........	1489.88
	57	280	1.60067E+000	5.86345E-005	0.00000E+000	1.60008E+000	0.00000E+000	8	...........	1489.88
	58	285	1.60066E+000	5.85492E-005	0.00000E+000	1.60008E+000	0.00000E+000	8	...........	1489.88
	59	290	1.60067E+000	5.85148E-005	0.00000E+000	1.60008E+000	0.00000E+000	8	...........	1489.88
	60	295	1.60066E+000	5.84924E-005	0.00000E+000	1.60008E+000	0.00000E+000	8	...........	1489.88
	61	300	1.60067E+000	5.84116E-005	0.00000E+000	1.60008E+000	0.00000E+000	8	...........	1489.88
	62	305	1.60066E+000	5.84132E-005	0.00000E+000	1.60008E+000	0.00000E+000	8	...........	1489.88
	63	310	1.60067E+000	5.82934E-005	0.00000E+000	1.60008E+000	0.00000E+000	8	...........	1489.88
	64	315	1.60066E+000	5.84151E-005	0.00000E+000	1.60008E+000	0.00000E+000	8	...........	1489.88
	65	320	1.60067E+000	5.85649E-005	0.00000E+000	1.60008E+000	0.00000E+000	8	...........	1489.88
	66	325	1.60067E+000	5.84800E-005	0.00000E+000	1.60008E+000	0.00000E+000	8	...........	1489.88
	67	330	1.60067E+000	5.84679E-005	0.00000E+000	1.60008E+000	0.00000E+000	8	...........	1489.88
	68	335	1.60067E+000	5.85057E-005	0.00000E+000	1.60008E+000	0.00000E+000	8	...........	1489.88
	69	340	1.60067E+000	5.83847E-005	0.00000E+000	1.60008E+000	0.00000E+000	8	...........	1489.88
	70	345	1.60066E+000	5.83817E-005	0.00000E+000	1.60008E+000	0.00000E+000	8	...........	1489.88
	71	350	1.60067E+000	5.83147E-005	0.00000E+000	1.60008E+000	0.00000E+000	8	...........	1489.88
	72	355	1.60066E+000	5.82503E-005	0.00000E+000	1.60008E+000	0.00000E+000	8	...........	1489.88
	73	360	1.60066E+000	5.82707E-005	0.00000E+000	1.60008E+000	0.00000E+000	8	...........	1489.88
	74	365	1.60066E+000	5.82054E-005	0.00000E+000	1.60008E+000	0.00000E+000	8	...........	1489.88
	75	370	1.60066E+000	5.81631E-005	0.00000E+000	1.60008E+000	0.00000E+000	8	...........	1489.88
	76	375	1.60066E+000	5.81553E-005	0.00000E+000	1.60008E+000	0.00000E+000	8	...........	1489.88
	77	380	1.60067E+000	5.81242E-005	0.00000E+000	1.60008E+000	0.00000E+000	8	...........	1489.83
	78	385	1.60067E+000	5.81016E-005	0.00000E+000	1.60008E+000	0.00000E+000	8	...........	1489.88
	79	390	1.60067E+000	5.80333E-005	0.00000E+000	1.60008E+000	0.00000E+000	8	...........	1489.88
	80	395	1.60067E+000	5.79857E-005	0.00000E+000	1.60008E+000	0.00000E+000	8	...........	1489.88
	81	400	1.60066E+000	5.80539E-005	0.00000E+000	1.60008E+000	0.00000E+000	8	...........	1489.88
	82	405	1.60067E+000	5.80278E-005	0.00000E+000	1.60008E+000	0.00000E+000	8	...........	1489.88
	83	410	1.60067E+000	5.79730E-005	0.00000E+000	1.60008E+000	0.00000E+000	8	...........	1489.88
	84	415	1.60066E+000	5.78295E-005	0.00000E+000	1.60008E+000	0.00000E+000	8	...........	1489.83
	85	420	1.60067E+000	5.78597E-005	0.00000E+000	1.60008E+000	0.00000E+000	8	...........	1489.88
	86	425	1.60066E+000	5.78889E-005	0.00000E+000	1.60008E+000	0.00000E+000	8	...........	1489.83
	87	430	1.60067E+000	5.78244E-005	0.00000E+000	1.60008E+000	0.00000E+000	8	...........	1489.84
	88	435	1.60067E+000	5.79006E-005	0.00000E+000	1.60008E+000	0.00000E+000	8	...........	1489.88
	89	440	1.60067E+000	5.77795E-005	0.00000E+000	1.60008E+000	0.00000E+000	8	...........	1489.88
	90	445	1.60066E+000	5.79035E-005	0.00000E+000	1.60008E+000	0.00000E+000	8	...........	1489.88
	91	450	1.60066E+000	5.76085E-005	0.00000E+000	1.60008E+000	0.00000E+000	8	...........	1489.88
	92	455	1.60066E+000	5.97877E-005	0.00000E+000	1.60008E+000	0.00000E+000	8	...........	1489.88
	93	460	1.60067E+000	6.07597E-005	0.00000E+000	1.60008E+000	0.00000E+000	8	...........	1489.88
	94	465	1.60067E+000	6.08535E-005	0.00000E+000	1.60008E+000	0.00000E+000	8	...........	1489.88
	95	470	1.60066E+000	6.10022E-005	0.00000E+000	1.60008E+000	0.00000E+000	8	...........	1489.88
	96	475	1.60067E+000	6.09624E-005	0.00000E+000	1.60008E+000	0.00000E+000	8	...........	1489.88
	97	480	1.60067E+000	6.08571E-005	0.00000E+000	1.60008E+000	0.00000E+000	8	...........	1489.88
	98	485	1.60067E+000	6.09108E-005	0.00000E+000	1.60008E+000	0.00000E+000	8	...........	1489.88
	99	490	1.60067E+000	6.27081E-005	0.00000E+000	1.60008E+000	0.00000E+000	8	...........	1489.88
	100	495	1.60066E+000	6.40892E-005	0.00000E+000	1.60008E+000	0.00000E+000	8	...........	1489.88
	101	500	1.60067E+000	6.43776E-005	0.00000E+000	1.60008E+000	0.00000E+000	8	...........	1489.88
	102	505	1.60067E+000	6.43080E-005	0.00000E+000	1.60008E+000	0.00000E+000	8	...........	1489.88
	103	510	1.60067E+000	6.44156E-005	0.00000E+000	1.60008E+000	0.00000E+000	8	...........	1489.88
	104	515	1.60066E+000	6.43820E-005	0.00000E+000	1.60008E+000	0.00000E+000	8	...........	1489.88
	105	520	1.60067E+000	6.43200E-005	0.00000E+000	1.60008E+000	0.00000E+000	8	...........	1489.88
	106	525	1.60067E+000	6.43362E-005	0.00000E+000	1.60008E+000	0.00000E+000	8	...........	1489.88
	107	530	1.60066E+000	6.43480E-005	0.00000E+000	1.60008E+000	0.00000E+000	8	...........	1489.88
	108	535	1.60067E+000	6.43897E-005	0.00000E+000	1.60008E+000	0.00000E+000	8	...........	1489.88
	109	540	1.60067E+000	6.44456E-005	0.00000E+000	1.60008E+000	0.00000E+000	8	...........	1489.88
	110	545	1.60067E+000	6.44356E-005	0.00000E+000	1.60008E+000	0.00000E+000	8	...........	1489.79
	111	550	1.60067E+000	6.44016E-005	0.00000E+000	1.60008E+000	0.00000E+000	8	...........	1489.88
	112	555	1.60067E+000	6.43475E-005	0.00000E+000	1.60008E+000	0.00000E+000	8	...........	1489.88
	113	560	1.60067E+000	6.43496E-005	0.00000E+000	1.60008E+000	0.00000E+000	8	...........	1489.88
	114	565	1.60067E+000	6.42577E-005	0.00000E+000	1.60008E+000	0.00000E+000	8	...........	1489.84
	115	570	1.60067E+000	6.42293E-005	0.00000E+000	1.60008E+000	0.00000E+000	8	...........	1489.88
	116	575	1.60067E+000	6.42059E-005	0.00000E+000	1.60008E+000	0.00000E+000	8	...........	1489.84
	117	580	1.60067E+000	6.42095E-005	0.00000E+000	1.60008E+000	0.00000E+000	8	...........	1489.84
	118	585	1.60067E+000	6.41383E-005	0.00000E+000	1.60008E+000	0.00000E+000	8	...........	1489.88
	119	590	1.60067E+000	6.41583E-005	0.00000E+000	1.60008E+000	0.00000E+000	8	...........	1489.88
	120	595	1.60067E+000	6.41457E-005	0.00000E+000	1.60008E+000	0.00000E+000	8	...........	1489.88
	121	600	1.60067E+000	6.40987E-005	0.00000E+000	1.60008E+000	0.00000E+000	8	...........	1489.84
	122	605	1.60068E+000	6.40437E-005	0.00000E+000	1.60008E+000	0.00000E+000	8	...........	1489.88
	123	610	1.60067E+000	6.38138E-005	0.00000E+000	1.60008E+000	0.00000E+000	8	...........	1489.88
	124	615	1.60067E+000	6.38124E-005	0.00000E+000	1.60008E+000	0.00000E+000	8	...........	1489.88
	125	620	1.60067E+000	6.36998E-005	0.00000E+000	1.60008E+000	0.00000E+000	8	...........	1489.88
	126	625	1.60067E+000	6.37962E-005	0.00000E+000	1.60008E+000	0.00000E+000	8	...........	1489.88
	127	630	1.60067E+000	6.36989E-005	0.00000E+000	1.60008E+000	0.00000E+000	8	...........	1489.88
	128	635	1.60067E+000	6.37385E-005	0.00000E+000	1.60008E+000	0.00000E+000	8	...........	1489.88
	129	640	1.60067E+000	6.38197E-005	0.00000E+000	1.60008E+000	0.00000E+000	8	...........	1489.88
	130	645	1.60067E+000	6.37415E-005	0.00000E+000	1.60008E+000	0.00000E+000	8	...........	1489.88
	131	650	1.60067E+000	6.37520E-005	0.00000E+000	1.60008E+000	0.00000E+000	8	...........	1489.88
	132	655	1.60067E+000	6.37400E-005	0.00000E+000	1.60008E+000	0.00000E+000	8	...........	1489.88
	133	660	1.60066E+000	6.36495E-005	0.00000E+000	1.60008E+000	0.00000E+000	8	...........	1489.88
	134	665	1.60067E+000	6.37050E-005	0.00000E+000	1.60008E+000	0.00000E+000	8	...........	1489.88
	135	670	1.60067E+000	6.36665E-005	0.00000E+000	1.60008E+000	0.00000E+000	8	...........	1489.88
	136	675	1.60066E+000	6.36615E-005	0.00000E+000	1.60008E+000	0.00000E+000	8	...........	1489.88
	137	680	1.60066E+000	6.35928E-005	0.00000E+000	1.60008E+000	0.00000E+000	8	...........	1489.88
	138	685	1.60067E+000	6.35927E-005	0.00000E+000	1.60008E+000	0.00000E+000	8	...........	1489.88
	139	690	1.60066E+000	6.35691E-005	0.00000E+000	1.60008E+000	0.00000E+000	8	...........	1489.88
	140	695	1.60066E+000	6.34784E-005	0.00000E+000	1.60008E+000	0.00000E+000	8	...........	1489.88
	141	700	1.60066E+000	6.33930E-005	0.00000E+000	1.60008E+000	0.00000E+000	8	...........	1489.88
	142	705	1.60067E+000	6.34736E-005	0.00000E+000	1.60008E+000	0.00000E+000	8	...........	1489.84
	143	710	1.60066E+000	6.33829E-005	0.00000E+000	1.60008E+000	0.00000E+000	8	...........	1489.88
	144	715	1.60067E+000	6.33179E-005	0.00000E+000	1.60008E+000	0.00000E+000	8	...........	1489.83
	145	720	1.60067E+000	6.32565E-005	0.00000E+000	1.60008E+000	0.00000E+000	8	...........	1489.88
	146	725	1.60068E+000	6.31543E-005	0.00000E+000	1.60008E+000	0.00000E+000	8	...........	1489.88
	147	730	1.60067E+000	6.36550E-005	0.00000E+000	1.60008E+000	0.00000E+000	8	...........	1489.83
	148	735	1.60067E+000	6.39536E-005	0.00000E+000	1.60008E+000	0.00000E+000	8	...........	1489.88
	149	740	1.60067E+000	6.40408E-005	0.00000E+000	1.60008E+000	0.00000E+000	8	...........	1489.84
	150	745	1.60067E+000	6.40671E-005	0.00000E+000	1.60008E+000	0.00000E+000	8	...........	1489.88
	151	750	1.60067E+000	6.41174E-005	0.00000E+000	1.60008E+000	0.00000E+000	8	...........	1489.79
	152	755	1.60067E+000	6.39797E-005	0.00000E+000	1.60008E+000	0.00000E+000	8	...........	1489.84
	153	760	1.60066E+000	6.39436E-005	0.00000E+000	1.60008E+000	0.00000E+000	8	...........	1489.83
	154	765	1.60067E+000	6.40275E-005	0.00000E+000	1.60008E+000	0.00000E+000	8	...........	1489.83
	155	770	1.60067E+000	6.40008E-005	0.00000E+000	1.60008E+000	0.00000E+000	8	...........	1489.88
	156	775	1.60067E+000	6.39303E-005	0.00000E+000	1.60008E+000	0.00000E+000	8	...........	1489.79
	157	780	1.60066E+000	6.38153E-005	0.00000E+000	1.60008E+000	0.00000E+000	8	...........	1489.84
	158	785	1.60067E+000	6.37420E-005	0.00000E+000	1.60008E+000	0.00000E+000	8	...........	1489.88
	159	790	1.60067E+000	6.37299E-005	0.00000E+000	1.60008E+000	0.00000E+000	8	...........	1489.88
	160	795	1.60066E+000	6.37154E-005	0.00000E+000	1.60008E+000	0.00000E+000	8	...........	1489.83
	161	800	1.60067E+000	6.37776E-005	0.00000E+000	1.60008E+000	0.00000E+000	8	...........	1489.83
	162	805	1.60067E+000	6.35505E-005	0.00000E+000	1.60008E+000	0.00000E+000	8	...........	1489.84
	163	810	1.60067E+000	6.36074E-005	0.00000E+000	1.60008E+000	0.00000E+000	8	...........	1489.88
	164	815	1.60067E+000	6.35626E-005	0.00000E+000	1.60008E+000	0.00000E+000	8	...........	1489.88
	165	820	1.60066E+000	6.35088E-005	0.00000E+000	1.60008E+000	0.00000E+000	8	...........	1489.88
	166	825	1.60067E+000	6.35358E-005	0.00000E+000	1.60008E+000	0.00000E+000	8	...........	1489.88
	167	830	1.60066E+000	6.35009E-005	0.00000E+000	1.60008E+000	0.00000E+000	8	...........	1489.88
	168	835	1.60066E+000	6.34885E-005	0.00000E+000	1.60008E+000	0.00000E+000	8	...........	1489.88
	169	840	1.60067E+000	6.35371E-005	0.00000E+000	1.60008E+000	0.00000E+000	8	...........	1489.83
	170	845	1.60067E+000	6.34823E-005	0.00000E+000	1.60008E+000	0.00000E+000	8	...........	1489.84
	171	850	1.60066E+000	6.34340E-005	0.00000E+000	1.60008E+000	0.00000E+000	8	...........	1489.88
	172	855	1.60067E+000	6.34197E-005	0.00000E+000	1.60008E+000	0.00000E+000	8	...........	1489.88
	173	860	1.60067E+000	6.34248E-005	0.00000E+000	1.60008E+000	0.00000E+000	8	...........	1489.88
	174	865	1.60067E+000	6.33530E-005	0.00000E+000	1.60008E+000	0.00000E+000	8	...........	1489.88
	175	870	1.60067E+000	6.33749E-005	0.00000E+000	1.60008E+000	0.00000E+000	8	...........	1489.83
	176	875	1.60066E+000	6.32749E-005	0.00000E+000	1.60008E+000	0.00000E+000	8	...........	1489.83
	177	880	1.60066E+000	6.33559E-005	0.00000E+000	1.60008E+000	0.00000E+000	8	...........	1489.84
	178	885	1.60067E+000	6.32413E-005	0.00000E+000	1.60008E+000	0.00000E+000	8	...........	1489.83
	179	890	1.60066E+000	6.31904E-005	0.00000E+000	1.60008E+000	0.00000E+000	8	...........	1489.84
	180	895	1.60066E+000	6.32596E-005	0.00000E+000	1.60008E+000	0.00000E+000	8	...........	1489.88
	181	900	1.60066E+000	6.32011E-005	0.00000E+000	1.60008E+000	0.00000E+000	8	...........	1489.88
	182	905	1.60067E+000	6.31044E-005	0.00000E+000	1.60008E+000	0.00000E+000	8	...........	1489.88
	183	910	1.60066E+000	6.30976E-005	0.00000E+000	1.60008E+000	0.00000E+000	8	...........	1489.88
